Instrument parameter file: 
1 3.18 90.0000 
L1 60.0
#S 1 characterization runs
#L frequency(Hz) center_wavelength(angstrom) bank_num vanadium_run empty_run vanadium_back d_min(angstrom) d_max(angstrom)
60 0.533  1 7355 0 0 0.05  2.20 00000.00 16666.67
60 1.066  2 7357 0 0 0.30  3.20  8333.33 25000.00
60 1.333  3 7358 7503 0 0.43  3.80 12500.00 29166.67	
60 1.599  4 7369 0 0 0.57  4.25 16666.67 33333.33
60 2.665  5 7359 0 0 1.15  6.50 33333.33 50000.00
60 3.731  6 7360 0 0 1.70  8.50 50000.00 66666.67
60 4.797  7 7361 0 0 2.00 10.30 66666.67 83333.67

